Data from JAZA04901_14-31-27-313.txt Node
Date: Fri Oct 12 14:31:27 EDT 2018
User: physics
Spectrometer: JAZA0490
Scans to average: 1
Trigger mode: 0
Integration Time (sec): 1.000000E-1
Electric dark correction enabled: true
Boxcar width: 0
XAxis mode: Wavelengths
Number of Pixels in Spectrum: 2048
>>>>>Begin Spectral Data<<<<<
177.185	18.8
177.571	18.8
177.957	18.8
178.343	-91.18
178.729	-12.62
179.115	-32.82
179.5	47.97
179.886	12.06
180.272	54.71
180.658	12.06
181.043	25.53
181.429	12.06
181.815	-8.14
182.2	-14.87
182.586	-39.56
182.972	3.09
183.357	3.09
183.743	9.82
184.128	30.02
184.513	41.24
184.899	-41.8
185.284	-21.6
185.67	-5.89
186.055	-19.36
186.44	-91.18
186.825	-8.14
187.21	27.77
187.596	52.46
187.981	-1.4
188.366	36.75
188.751	72.66
189.136	74.91
189.521	43.48
189.906	18.8
190.291	36.75
190.676	-17.11
191.06	41.24
191.445	25.53
191.83	-53.02
192.215	-82.2
192.599	9.82
192.984	-8.14
193.369	-12.62
193.753	-17.11
194.138	21.04
194.522	5.33
194.907	12.06
195.291	27.77
195.676	-8.14
196.06	21.04
196.445	59.19
196.829	-17.11
197.213	12.06
197.597	68.17
197.982	-59.76
198.366	-28.33
198.75	16.55
199.134	-5.89
199.518	-26.09
199.902	5.33
200.286	41.24
200.67	0.84
201.054	-23.85
201.438	0.84
201.822	5.33
202.206	-46.29
202.59	27.77
202.973	70.42
203.357	-59.76
203.741	-91.18
204.124	36.75
204.508	5.33
204.892	59.19
205.275	-37.31
205.659	-50.78
206.042	5.33
206.426	18.8
206.809	-35.07
207.193	-10.38
207.576	18.8
207.959	-35.07
208.342	-57.51
208.726	5.33
209.109	-30.58
209.492	16.55
209.875	25.53
210.258	21.04
210.641	-30.58
211.025	-30.58
211.408	43.48
211.79	18.8
212.173	36.75
212.556	63.68
212.939	-35.07
213.322	-35.07
213.705	-39.56
214.088	-39.56
214.47	5.33
214.853	25.53
215.236	-95.67
215.618	-17.11
216.001	-23.85
216.383	-10.38
216.766	-48.53
217.148	-19.36
217.531	18.8
217.913	3.09
218.296	-28.33
218.678	0.84
219.06	16.55
219.443	-8.14
219.825	-3.65
220.207	25.53
220.589	27.77
220.971	-57.51
221.353	47.97
221.735	32.26
222.118	-46.29
222.5	-55.27
222.881	16.55
223.263	-12.62
223.645	-37.31
224.027	-35.07
224.409	-3.65
224.791	-50.78
225.172	21.04
225.554	14.31
225.936	25.53
226.317	-30.58
226.699	-10.38
227.081	3.09
227.462	90.62
227.844	27.77
228.225	52.46
228.607	43.48
228.988	27.77
229.369	5.33
229.751	12.06
230.132	-48.53
230.513	7.57
230.894	-41.8
231.276	-23.85
231.657	32.26
232.038	-23.85
232.419	0.84
232.8	0.84
233.181	-28.33
233.562	-12.62
233.943	45.73
234.324	-12.62
234.705	-26.09
235.085	27.77
235.466	-3.65
235.847	-86.69
236.228	3.09
236.608	3.09
236.989	-70.98
237.37	65.93
237.75	27.77
238.131	3.09
238.511	-68.73
238.892	-5.89
239.272	23.29
239.653	-66.49
240.033	-75.47
240.413	-17.11
240.794	-44.05
241.174	-10.38
241.554	-30.58
241.934	-5.89
242.314	18.8
242.694	54.71
243.075	27.77
243.455	-70.98
243.835	5.33
244.215	30.02
244.595	0.84
244.974	-26.09
245.354	-35.07
245.734	-53.02
246.114	-44.05
246.494	34.51
246.873	16.55
247.253	-8.14
247.633	-53.02
248.012	-55.27
248.392	27.77
248.771	-5.89
249.151	43.48
249.53	27.77
249.91	-62
250.289	5.33
250.669	14.31
251.048	-23.85
251.427	-62
251.806	-1.4
252.186	-17.11
252.565	52.46
252.944	41.24
253.323	5.33
253.702	-37.31
254.081	5.33
254.46	0.84
254.839	-10.38
255.218	21.04
255.597	-30.58
255.976	-5.89
256.355	-28.33
256.733	-26.09
257.112	-30.58
257.491	50.22
257.87	9.82
258.248	-3.65
258.627	65.93
259.005	3.09
259.384	27.77
259.762	30.02
260.141	-26.09
260.519	45.73
260.898	36.75
261.276	21.04
261.654	-10.38
262.033	113.06
262.411	32.26
262.789	12.06
263.167	25.53
263.545	-55.27
263.924	34.51
264.302	-28.33
264.68	-46.29
265.058	-62
265.436	-1.4
265.813	16.55
266.191	-28.33
266.569	-53.02
266.947	72.66
267.325	7.57
267.702	-23.85
268.08	56.95
268.458	-32.82
268.835	-21.6
269.213	-14.87
269.591	14.31
269.968	-57.51
270.346	-17.11
270.723	-3.65
271.1	-88.93
271.478	-46.29
271.855	-8.14
272.232	-46.29
272.61	-37.31
272.987	-17.11
273.364	18.8
273.741	-35.07
274.118	-5.89
274.495	-21.6
274.872	61.44
275.249	0.84
275.626	-53.02
276.003	68.17
276.38	-39.56
276.757	-28.33
277.134	27.77
277.511	-35.07
277.887	-44.05
278.264	-17.11
278.641	-35.07
279.018	14.31
279.394	0.84
279.771	45.73
280.147	7.57
280.524	5.33
280.9	-75.47
281.277	-32.82
281.653	39
282.029	43.48
282.406	-46.29
282.782	-14.87
283.158	-14.87
283.534	25.53
283.91	-21.6
284.287	-12.62
284.663	-39.56
285.039	54.71
285.415	0.84
285.791	21.04
286.167	-28.33
286.542	47.97
286.918	14.31
287.294	-55.27
287.67	-21.6
288.046	12.06
288.421	-26.09
288.797	-30.58
289.173	39
289.548	36.75
289.924	-46.29
290.299	-12.62
290.675	14.31
291.05	-23.85
291.426	-39.56
291.801	-70.98
292.177	5.33
292.552	54.71
292.927	-26.09
293.302	-10.38
293.678	-28.33
294.053	-3.65
294.428	-21.6
294.803	-104.64
295.178	-8.14
295.553	18.8
295.928	-32.82
296.303	39
296.678	-5.89
297.053	-21.6
297.427	47.97
297.802	36.75
298.177	-14.87
298.552	-23.85
298.926	-32.82
299.301	-53.02
299.676	12.06
300.05	-5.89
300.425	-8.14
300.799	-12.62
301.174	-8.14
301.548	47.97
301.922	21.04
302.297	-48.53
302.671	39
303.045	25.53
303.42	-17.11
303.794	-12.62
304.168	-79.95
304.542	-26.09
304.916	16.55
305.29	-8.14
305.664	5.33
306.038	0.84
306.412	-50.78
306.786	-53.02
307.16	-23.85
307.534	-21.6
307.907	-37.31
308.281	5.33
308.655	-21.6
309.028	14.31
309.402	-14.87
309.776	23.29
310.149	-14.87
310.523	-19.36
310.896	-1.4
311.27	43.48
311.643	-70.98
312.016	-12.62
312.39	-77.71
312.763	5.33
313.136	-48.53
313.509	-39.56
313.883	9.82
314.256	-64.24
314.629	-39.56
315.002	-57.51
315.375	7.57
315.748	25.53
316.121	-35.07
316.494	7.57
316.867	-12.62
317.24	45.73
317.612	-1.4
317.985	-14.87
318.358	-14.87
318.73	-44.05
319.103	-23.85
319.476	43.48
319.848	21.04
320.221	47.97
320.593	12.06
320.966	16.55
321.338	-19.36
321.711	-30.58
322.083	-3.65
322.455	-19.36
322.828	65.93
323.2	-12.62
323.572	21.04
323.944	-73.22
324.316	16.55
324.688	-84.44
325.06	-10.38
325.432	12.06
325.804	9.82
326.176	0.84
326.548	21.04
326.92	-8.14
327.292	43.48
327.664	-79.95
328.035	74.91
328.407	-28.33
328.779	-10.38
329.15	79.39
329.522	-70.98
329.893	-50.78
330.265	-50.78
330.636	-59.76
331.008	-53.02
331.379	-21.6
331.75	30.02
332.122	-12.62
332.493	-26.09
332.864	32.26
333.236	72.66
333.607	-19.36
333.978	86.13
334.349	45.73
334.72	30.02
335.091	-19.36
335.462	-30.58
335.833	7.57
336.204	-32.82
336.575	-44.05
336.945	-21.6
337.316	-23.85
337.687	21.04
338.058	21.04
338.428	32.26
338.799	-50.78
339.169	9.82
339.54	14.31
339.911	45.73
340.281	47.97
340.651	-41.8
341.022	3.09
341.392	43.48
341.762	0.84
342.133	-12.62
342.503	18.8
342.873	27.77
343.243	43.48
343.613	-1.4
343.984	-104.64
344.354	-57.51
344.724	-14.87
345.094	5.33
345.464	7.57
345.833	0.84
346.203	-8.14
346.573	3.09
346.943	-32.82
347.313	59.19
347.682	5.33
348.052	-48.53
348.422	65.93
348.791	-8.14
349.161	16.55
349.53	-3.65
349.9	-21.6
350.269	-26.09
350.638	25.53
351.008	43.48
351.377	27.77
351.746	12.06
352.116	36.75
352.485	-35.07
352.854	-12.62
353.223	-70.98
353.592	3.09
353.961	54.71
354.33	-50.78
354.699	54.71
355.068	9.82
355.437	79.39
355.806	12.06
356.175	72.66
356.543	9.82
356.912	70.42
357.281	-3.65
357.65	23.29
358.018	-17.11
358.387	32.26
358.755	25.53
359.124	-44.05
359.492	-57.51
359.861	-37.31
360.229	-70.98
360.597	25.53
360.966	23.29
361.334	16.55
361.702	61.44
362.07	47.97
362.438	-62
362.807	-23.85
363.175	-5.89
363.543	-30.58
363.911	-30.58
364.279	-12.62
364.646	-28.33
365.014	-12.62
365.382	-50.78
365.75	34.51
366.118	5.33
366.485	18.8
366.853	-35.07
367.221	-32.82
367.588	21.04
367.956	34.51
368.323	54.71
368.691	47.97
369.058	56.95
369.426	14.31
369.793	18.8
370.16	-32.82
370.528	-14.87
370.895	-3.65
371.262	3.09
371.629	-62
371.996	-39.56
372.363	-48.53
372.73	-41.8
373.097	30.02
373.464	54.71
373.831	7.57
374.198	-8.14
374.565	12.06
374.932	7.57
375.299	-3.65
375.665	-5.89
376.032	-41.8
376.399	25.53
376.765	-12.62
377.132	-50.78
377.498	-28.33
377.865	41.24
378.231	-12.62
378.598	-14.87
378.964	9.82
379.331	18.8
379.697	27.77
380.063	0.84
380.429	52.46
380.795	5.33
381.162	7.57
381.528	-10.38
381.894	3.09
382.26	-37.31
382.626	56.95
382.992	-70.98
383.358	21.04
383.723	5.33
384.089	-23.85
384.455	34.51
384.821	23.29
385.186	9.82
385.552	106.33
385.918	-10.38
386.283	12.06
386.649	-26.09
387.014	-5.89
387.38	56.95
387.745	32.26
388.111	-32.82
388.476	-64.24
388.841	-5.89
389.206	-46.29
389.572	-12.62
389.937	-30.58
390.302	-44.05
390.667	5.33
391.032	-19.36
391.397	-23.85
391.762	50.22
392.127	-10.38
392.492	-8.14
392.857	-59.76
393.222	-75.47
393.587	-26.09
393.951	41.24
394.316	32.26
394.681	-44.05
395.045	-12.62
395.41	7.57
395.774	74.91
396.139	151.21
396.503	56.95
396.868	5.33
397.232	0.84
397.596	-12.62
397.961	61.44
398.325	-79.95
398.689	-12.62
399.053	56.95
399.418	-5.89
399.782	32.26
400.146	50.22
400.51	3.09
400.874	25.53
401.238	-5.89
401.602	54.71
401.965	41.24
402.329	50.22
402.693	61.44
403.057	61.44
403.42	25.53
403.784	79.39
404.148	-5.89
404.511	7.57
404.875	30.02
405.238	83.88
405.602	148.97
405.965	139.99
406.329	74.91
406.692	52.46
407.055	95.1
407.418	27.77
407.782	-10.38
408.145	14.31
408.508	23.29
408.871	0.84
409.234	54.71
409.597	18.8
409.96	-55.27
410.323	39
410.686	-10.38
411.049	133.26
411.412	54.71
411.774	81.64
412.137	-5.89
412.5	-59.76
412.862	3.09
413.225	23.29
413.588	-5.89
413.95	-37.31
414.313	18.8
414.675	-55.27
415.037	12.06
415.4	-5.89
415.762	153.46
416.124	207.32
416.487	413.8
416.849	770.65
417.211	887.36
417.573	770.65
417.935	413.8
418.297	216.3
418.659	86.13
419.021	171.41
419.383	243.23
419.745	355.45
420.107	631.5
420.469	759.43
420.83	952.45
421.192	1286.85
421.554	981.62
421.915	539.49
422.277	234.25
422.638	115.3
423	61.44
423.361	-3.65
423.723	7.57
424.084	-44.05
424.446	32.26
424.807	54.71
425.168	0.84
425.529	68.17
425.891	122.04
426.252	115.3
426.613	267.92
426.974	393.6
427.335	535
427.696	478.89
428.057	564.17
428.418	494.6
428.778	319.54
429.139	137.75
429.5	104.08
429.861	65.93
430.221	27.77
430.582	173.66
430.943	175.9
431.303	350.96
431.664	189.37
432.024	133.26
432.385	39
432.745	16.55
433.105	36.75
433.466	90.62
433.826	146.72
434.186	182.63
434.546	366.67
434.907	306.07
435.267	191.61
435.627	133.26
435.987	137.75
436.347	65.93
436.707	23.29
437.067	59.19
437.427	-28.33
437.786	-1.4
438.146	-30.58
438.506	-12.62
438.866	-10.38
439.225	-35.07
439.585	9.82
439.944	41.24
440.304	0.84
440.663	-19.36
441.023	27.77
441.382	56.95
441.742	9.82
442.101	14.31
442.46	54.71
442.82	0.84
443.179	-21.6
443.538	63.68
443.897	3.09
444.256	25.53
444.615	-127.09
444.974	-17.11
445.333	54.71
445.692	0.84
446.051	-3.65
446.41	5.33
446.768	-5.89
447.127	-44.05
447.486	41.24
447.845	9.82
448.203	-21.6
448.562	-21.6
448.92	106.33
449.279	16.55
449.637	-30.58
449.996	0.84
450.354	59.19
450.712	-12.62
451.071	45.73
451.429	30.02
451.787	79.39
452.145	146.72
452.503	160.19
452.861	90.62
453.219	9.82
453.577	115.3
453.935	-17.11
454.293	32.26
454.651	-66.49
455.009	-46.29
455.367	-14.87
455.725	36.75
456.082	-5.89
456.44	59.19
456.798	-41.8
457.155	30.02
457.513	9.82
457.87	0.84
458.228	65.93
458.585	41.24
458.942	12.06
459.3	-5.89
459.657	32.26
460.014	36.75
460.371	36.75
460.729	83.88
461.086	65.93
461.443	-28.33
461.8	54.71
462.157	77.15
462.514	-3.65
462.871	23.29
463.227	-12.62
463.584	52.46
463.941	47.97
464.298	92.86
464.655	79.39
465.011	41.24
465.368	14.31
465.724	-28.33
466.081	30.02
466.437	-73.22
466.794	-35.07
467.15	21.04
467.507	36.75
467.863	-23.85
468.219	-5.89
468.575	-14.87
468.932	32.26
469.288	18.8
469.644	16.55
470	43.48
470.356	72.66
470.712	12.06
471.068	65.93
471.424	104.08
471.78	18.8
472.135	36.75
472.491	41.24
472.847	-55.27
473.203	0.84
473.558	0.84
473.914	54.71
474.269	32.26
474.625	7.57
474.98	-8.14
475.336	41.24
475.691	77.15
476.046	-21.6
476.402	21.04
476.757	16.55
477.112	-28.33
477.467	41.24
477.823	-30.58
478.178	9.82
478.533	-5.89
478.888	-64.24
479.243	39
479.598	25.53
479.952	-30.58
480.307	41.24
480.662	-21.6
481.017	-44.05
481.372	61.44
481.726	-35.07
482.081	0.84
482.435	7.57
482.79	-3.65
483.144	43.48
483.499	23.29
483.853	-10.38
484.208	-28.33
484.562	-21.6
484.916	-28.33
485.27	32.26
485.625	-73.22
485.979	-17.11
486.333	14.31
486.687	-44.05
487.041	50.22
487.395	25.53
487.749	45.73
488.103	86.13
488.457	-12.62
488.81	-12.62
489.164	95.1
489.518	59.19
489.872	-19.36
490.225	-39.56
490.579	-26.09
490.932	5.33
491.286	7.57
491.639	-1.4
491.993	-19.36
492.346	-44.05
492.7	-68.73
493.053	-102.4
493.406	5.33
493.759	25.53
494.112	61.44
494.466	56.95
494.819	-12.62
495.172	-8.14
495.525	14.31
495.878	32.26
496.231	-53.02
496.583	-14.87
496.936	39
497.289	-17.11
497.642	45.73
497.994	21.04
498.347	21.04
498.7	-46.29
499.052	27.77
499.405	36.75
499.757	-41.8
500.11	-39.56
500.462	50.22
500.814	27.77
501.167	-23.85
501.519	-8.14
501.871	-17.11
502.223	92.86
502.575	0.84
502.928	65.93
503.28	-50.78
503.632	18.8
503.984	79.39
504.335	-5.89
504.687	-26.09
505.039	45.73
505.391	7.57
505.743	-1.4
506.094	65.93
506.446	-23.85
506.798	-48.53
507.149	-21.6
507.501	32.26
507.852	12.06
508.204	-21.6
508.555	-23.85
508.906	-5.89
509.258	72.66
509.609	7.57
509.96	14.31
510.311	-26.09
510.663	-17.11
511.014	54.71
511.365	27.77
511.716	-30.58
512.067	-8.14
512.418	-10.38
512.768	23.29
513.119	3.09
513.47	36.75
513.821	-30.58
514.171	-35.07
514.522	16.55
514.873	25.53
515.223	-28.33
515.574	-3.65
515.924	32.26
516.275	18.8
516.625	79.39
516.975	47.97
517.326	56.95
517.676	59.19
518.026	21.04
518.376	-14.87
518.727	12.06
519.077	47.97
519.427	7.57
519.777	54.71
520.127	106.33
520.477	27.77
520.826	50.22
521.176	-26.09
521.526	9.82
521.876	-23.85
522.225	-48.53
522.575	27.77
522.925	-41.8
523.274	133.26
523.624	9.82
523.973	-10.38
524.323	23.29
524.672	52.46
525.021	-8.14
525.371	-12.62
525.72	3.09
526.069	3.09
526.418	3.09
526.767	14.31
527.117	-35.07
527.466	-5.89
527.815	-32.82
528.164	16.55
528.512	54.71
528.861	12.06
529.21	-10.38
529.559	9.82
529.908	-3.65
530.256	-48.53
530.605	-28.33
530.954	7.57
531.302	-14.87
531.651	65.93
531.999	113.06
532.347	0.84
532.696	-10.38
533.044	18.8
533.392	-12.62
533.741	-39.56
534.089	52.46
534.437	-5.89
534.785	16.55
535.133	39
535.481	-32.82
535.829	-5.89
536.177	0.84
536.525	25.53
536.873	-50.78
537.221	-30.58
537.568	18.8
537.916	14.31
538.264	3.09
538.611	-23.85
538.959	36.75
539.307	-64.24
539.654	-66.49
540.001	54.71
540.349	-21.6
540.696	-50.78
541.044	-79.95
541.391	21.04
541.738	21.04
542.085	-5.89
542.432	-28.33
542.779	-68.73
543.126	25.53
543.473	7.57
543.82	-5.89
544.167	36.75
544.514	72.66
544.861	0.84
545.208	21.04
545.555	7.57
545.901	-5.89
546.248	65.93
546.595	50.22
546.941	36.75
547.288	14.31
547.634	56.95
547.98	5.33
548.327	54.71
548.673	61.44
549.019	0.84
549.366	0.84
549.712	47.97
550.058	101.84
550.404	86.13
550.75	162.43
551.096	128.77
551.442	23.29
551.788	27.77
552.134	12.06
552.48	27.77
552.826	39
553.171	117.55
553.517	-30.58
553.863	56.95
554.208	99.59
554.554	41.24
554.9	-1.4
555.245	21.04
555.59	9.82
555.936	14.31
556.281	34.51
556.626	-28.33
556.972	178.15
557.317	135.5
557.662	65.93
558.007	47.97
558.352	95.1
558.697	124.28
559.042	36.75
559.387	43.48
559.732	-23.85
560.077	12.06
560.422	56.95
560.767	9.82
561.111	9.82
561.456	32.26
561.801	135.5
562.145	187.12
562.49	110.81
562.834	21.04
563.179	-26.09
563.523	25.53
563.867	-14.87
564.212	-59.76
564.556	47.97
564.9	-17.11
565.244	81.64
565.589	18.8
565.933	83.88
566.277	131.01
566.621	146.72
566.965	27.77
567.309	27.77
567.652	3.09
567.996	39
568.34	-41.8
568.684	27.77
569.027	0.84
569.371	-1.4
569.715	36.75
570.058	16.55
570.402	-35.07
570.745	-26.09
571.089	-48.53
571.432	-53.02
571.775	16.55
572.119	-46.29
572.462	-5.89
572.805	23.29
573.148	7.57
573.491	-10.38
573.834	14.31
574.177	-12.62
574.52	54.71
574.863	25.53
575.206	77.15
575.549	52.46
575.892	36.75
576.234	108.57
576.577	79.39
576.92	12.06
577.262	95.1
577.605	-46.29
577.947	3.09
578.29	65.93
578.632	56.95
578.975	-26.09
579.317	-26.09
579.659	0.84
580.001	41.24
580.344	0.84
580.686	-46.29
581.028	0.84
581.37	-30.58
581.712	-8.14
582.054	30.02
582.396	0.84
582.738	50.22
583.079	9.82
583.421	5.33
583.763	39
584.105	21.04
584.446	-19.36
584.788	65.93
585.129	41.24
585.471	36.75
585.812	-21.6
586.154	-32.82
586.495	25.53
586.836	18.8
587.178	-3.65
587.519	65.93
587.86	-3.65
588.201	-48.53
588.542	43.48
588.883	65.93
589.224	155.7
589.565	83.88
589.906	124.28
590.247	131.01
590.588	108.57
590.929	14.31
591.269	54.71
591.61	0.84
591.951	124.28
592.291	211.81
592.632	92.86
592.972	88.37
593.313	59.19
593.653	23.29
593.993	86.13
594.334	18.8
594.674	9.82
595.014	110.81
595.354	36.75
595.694	81.64
596.034	5.33
596.375	0.84
596.714	47.97
597.054	41.24
597.394	43.48
597.734	27.77
598.074	39
598.414	32.26
598.753	-17.11
599.093	-21.6
599.433	-21.6
599.772	18.8
600.112	-21.6
600.451	72.66
600.791	12.06
601.13	7.57
601.469	-21.6
601.809	-41.8
602.148	5.33
602.487	43.48
602.826	14.31
603.165	34.51
603.504	86.13
603.843	88.37
604.182	380.14
604.521	575.4
604.86	337.49
605.199	254.45
605.538	299.34
605.877	191.61
606.215	122.04
606.554	169.17
606.892	189.37
607.231	151.21
607.57	54.71
607.908	47.97
608.246	-10.38
608.585	-30.58
608.923	-28.33
609.261	-21.6
609.6	27.77
609.938	32.26
610.276	119.79
610.614	101.84
610.952	106.33
611.29	-10.38
611.628	104.08
611.966	95.1
612.304	-19.36
612.641	3.09
612.979	-8.14
613.317	-19.36
613.655	14.31
613.992	30.02
614.33	-35.07
614.667	-41.8
615.005	-5.89
615.342	-5.89
615.68	21.04
616.017	70.42
616.354	32.26
616.691	108.57
617.029	32.26
617.366	32.26
617.703	18.8
618.04	54.71
618.377	113.06
618.714	113.06
619.051	30.02
619.388	-19.36
619.725	-35.07
620.061	27.77
620.398	7.57
620.735	61.44
621.071	-10.38
621.408	18.8
621.745	-8.14
622.081	101.84
622.417	72.66
622.754	131.01
623.09	119.79
623.427	23.29
623.763	-39.56
624.099	18.8
624.435	-41.8
624.771	54.71
625.107	52.46
625.443	45.73
625.779	-46.29
626.115	27.77
626.451	18.8
626.787	65.93
627.123	16.55
627.459	59.19
627.794	-17.11
628.13	-21.6
628.465	41.24
628.801	-17.11
629.137	-26.09
629.472	-23.85
629.807	-26.09
630.143	83.88
630.478	135.5
630.813	72.66
631.149	113.06
631.484	77.15
631.819	97.35
632.154	124.28
632.489	-5.89
632.824	65.93
633.159	-46.29
633.494	39
633.829	12.06
634.164	-41.8
634.498	30.02
634.833	7.57
635.168	34.51
635.502	14.31
635.837	12.06
636.171	-19.36
636.506	50.22
636.84	25.53
637.175	-62
637.509	14.31
637.843	18.8
638.177	23.29
638.512	7.57
638.846	23.29
639.18	59.19
639.514	70.42
639.848	157.95
640.182	18.8
640.516	74.91
640.85	39
641.183	72.66
641.517	59.19
641.851	86.13
642.184	196.1
642.518	371.16
642.852	357.69
643.185	229.77
643.519	187.12
643.852	676.39
644.185	81.64
644.519	-19.36
644.852	-26.09
645.185	68.17
645.519	3.09
645.852	56.95
646.185	12.06
646.518	25.53
646.851	-14.87
647.184	-19.36
647.517	-53.02
647.849	54.71
648.182	5.33
