Data from JAZA04901_14-25-33-450.txt Node
Date: Fri Oct 12 14:25:33 EDT 2018
User: physics
Spectrometer: JAZA0490
Scans to average: 1
Trigger mode: 0
Integration Time (sec): 1.000000E-1
Electric dark correction enabled: true
Boxcar width: 0
XAxis mode: Wavelengths
Number of Pixels in Spectrum: 2048
>>>>>Begin Spectral Data<<<<<
177.185	9.68
177.571	9.68
177.957	9.68
178.343	-35.21
178.729	-62.14
179.115	2.95
179.5	-1.54
179.886	18.66
180.272	63.54
180.658	5.19
181.043	-59.9
181.429	-32.96
181.815	14.17
182.2	25.39
182.586	14.17
182.972	-32.96
183.357	41.1
183.743	29.88
184.128	81.5
184.513	-23.99
184.899	23.14
185.284	16.41
185.67	-19.5
186.055	25.39
186.44	-6.03
186.825	112.92
187.21	38.86
187.596	25.39
187.981	11.92
188.366	-50.92
188.751	-15.01
189.136	-28.48
189.521	2.95
189.906	-6.03
190.291	56.81
190.676	43.34
191.06	61.3
191.445	-8.28
191.83	27.63
192.215	45.59
192.599	-28.48
192.984	83.74
193.369	50.08
193.753	34.37
194.138	-3.79
194.522	11.92
194.907	23.14
195.291	38.86
195.676	11.92
196.06	50.08
196.445	61.3
196.829	32.12
197.213	59.05
197.597	-28.48
197.982	-48.67
198.366	34.37
198.75	-50.92
199.134	16.41
199.518	119.65
199.902	-26.23
200.286	-46.43
200.67	18.66
201.054	-26.23
201.438	-10.52
201.822	56.81
202.206	-3.79
202.59	83.74
202.973	34.37
203.357	43.34
203.741	-35.21
204.124	-28.48
204.508	63.54
204.892	2.95
205.275	34.37
205.659	-6.03
206.042	2.95
206.426	77.01
206.809	23.14
207.193	-35.21
207.576	45.59
207.959	7.43
208.342	-12.76
208.726	-12.76
209.109	70.28
209.492	16.41
209.875	29.88
210.258	-15.01
210.641	2.95
211.025	2.95
211.408	-55.41
211.79	103.94
212.173	2.95
212.556	-21.74
212.939	-21.74
213.322	-15.01
213.705	-1.54
214.088	7.43
214.47	36.61
214.853	-12.76
215.236	16.41
215.618	23.14
216.001	-26.23
216.383	79.25
216.766	74.76
217.148	14.17
217.531	23.14
217.913	11.92
218.296	25.39
218.678	47.83
219.06	-8.28
219.443	20.9
219.825	63.54
220.207	18.66
220.589	20.9
220.971	2.95
221.353	20.9
221.735	50.08
222.118	16.41
222.5	2.95
222.881	61.3
223.263	32.12
223.645	23.14
224.027	70.28
224.409	11.92
224.791	47.83
225.172	-32.96
225.554	14.17
225.936	32.12
226.317	-6.03
226.699	52.32
227.081	20.9
227.462	97.21
227.844	0.7
228.225	-55.41
228.607	0.7
228.988	0.7
229.369	-10.52
229.751	2.95
230.132	52.32
230.513	2.95
230.894	25.39
231.276	43.34
231.657	7.43
232.038	-1.54
232.419	20.9
232.8	-68.87
233.181	9.68
233.562	-10.52
233.943	50.08
234.324	-32.96
234.705	9.68
235.085	20.9
235.466	32.12
235.847	34.37
236.228	9.68
236.608	25.39
236.989	-6.03
237.37	-21.74
237.75	-15.01
238.131	-62.14
238.511	29.88
238.892	36.61
239.272	52.32
239.653	20.9
240.033	83.74
240.413	70.28
240.794	77.01
241.174	52.32
241.554	29.88
241.934	63.54
242.314	-15.01
242.694	36.61
243.075	16.41
243.455	45.59
243.835	68.03
244.215	45.59
244.595	-39.7
244.974	-10.52
245.354	70.28
245.734	5.19
246.114	2.95
246.494	27.63
246.873	5.19
247.253	34.37
247.633	0.7
248.012	41.1
248.392	-59.9
248.771	14.17
249.151	9.68
249.53	63.54
249.91	-15.01
250.289	-41.94
250.669	-35.21
251.048	14.17
251.427	9.68
251.806	-46.43
252.186	9.68
252.565	16.41
252.944	27.63
253.323	7.43
253.702	-21.74
254.081	-28.48
254.46	45.59
254.839	34.37
255.218	-41.94
255.597	-28.48
255.976	-6.03
256.355	-10.52
256.733	14.17
257.112	-37.45
257.491	27.63
257.87	-1.54
258.248	-30.72
258.627	29.88
259.005	-15.01
259.384	-10.52
259.762	61.3
260.141	77.01
260.519	7.43
260.898	18.66
261.276	41.1
261.654	2.95
262.033	-15.01
262.411	-6.03
262.789	38.86
263.167	45.59
263.545	-48.67
263.924	47.83
264.302	50.08
264.68	99.45
265.058	36.61
265.436	16.41
265.813	29.88
266.191	20.9
266.569	-3.79
266.947	0.7
267.325	50.08
267.702	5.19
268.08	-19.5
268.458	-37.45
268.835	18.66
269.213	-6.03
269.591	56.81
269.968	-1.54
270.346	-59.9
270.723	-23.99
271.1	-21.74
271.478	83.74
271.855	-15.01
272.232	32.12
272.61	-8.28
272.987	-3.79
273.364	-23.99
273.741	11.92
274.118	-55.41
274.495	-1.54
274.872	74.76
275.249	-19.5
275.626	52.32
276.003	29.88
276.38	-10.52
276.757	29.88
277.134	5.19
277.511	-21.74
277.887	-19.5
278.264	-8.28
278.641	27.63
279.018	-1.54
279.394	74.76
279.771	85.99
280.147	45.59
280.524	27.63
280.9	11.92
281.277	56.81
281.653	32.12
282.029	16.41
282.406	52.32
282.782	18.66
283.158	36.61
283.534	0.7
283.91	38.86
284.287	11.92
284.663	54.57
285.039	-46.43
285.415	-48.67
285.791	32.12
286.167	-75.61
286.542	0.7
286.918	27.63
287.294	52.32
287.67	43.34
288.046	38.86
288.421	23.14
288.797	41.1
289.173	77.01
289.548	11.92
289.924	-8.28
290.299	56.81
290.675	34.37
291.05	-32.96
291.426	25.39
291.801	-15.01
292.177	63.54
292.552	81.5
292.927	-12.76
293.302	14.17
293.678	61.3
294.053	27.63
294.428	-39.7
294.803	50.08
295.178	32.12
295.553	-35.21
295.928	7.43
296.303	5.19
296.678	43.34
297.053	-8.28
297.427	-19.5
297.802	90.48
298.177	11.92
298.552	88.23
298.926	25.39
299.301	20.9
299.676	52.32
300.05	23.14
300.425	5.19
300.799	18.66
301.174	63.54
301.548	-8.28
301.922	2.95
302.297	-15.01
302.671	-3.79
303.045	-19.5
303.42	0.7
303.794	38.86
304.168	7.43
304.542	38.86
304.916	32.12
305.29	32.12
305.664	-1.54
306.038	7.43
306.412	27.63
306.786	14.17
307.16	41.1
307.534	43.34
307.907	-19.5
308.281	-28.48
308.655	50.08
309.028	5.19
309.402	63.54
309.776	-95.81
310.149	-21.74
310.523	-12.76
310.896	59.05
311.27	-37.45
311.643	27.63
312.016	148.83
312.39	38.86
312.763	171.27
313.136	128.63
313.509	126.38
313.883	146.58
314.256	99.45
314.629	43.34
315.002	45.59
315.375	20.9
315.748	0.7
316.121	-6.03
316.494	-19.5
316.867	-15.01
317.24	14.17
317.612	-48.67
317.985	65.79
318.358	5.19
318.73	-32.96
319.103	23.14
319.476	23.14
319.848	-15.01
320.221	-48.67
320.593	-23.99
320.966	83.74
321.338	-15.01
321.711	54.57
322.083	-1.54
322.455	-32.96
322.828	0.7
323.2	-26.23
323.572	-17.25
323.944	-10.52
324.316	7.43
324.688	-3.79
325.06	5.19
325.432	11.92
325.804	14.17
326.176	9.68
326.548	-17.25
326.92	18.66
327.292	-46.43
327.664	-10.52
328.035	52.32
328.407	27.63
328.779	45.59
329.15	90.48
329.522	0.7
329.893	59.05
330.265	-41.94
330.636	81.5
331.008	-53.16
331.379	32.12
331.75	-12.76
332.122	-6.03
332.493	-10.52
332.864	-15.01
333.236	52.32
333.607	45.59
333.978	74.76
334.349	7.43
334.72	43.34
335.091	106.19
335.462	101.7
335.833	92.72
336.204	27.63
336.575	61.3
336.945	2.95
337.316	43.34
337.687	43.34
338.058	126.38
338.428	-30.72
338.799	-8.28
339.169	-21.74
339.54	-23.99
339.911	-1.54
340.281	-3.79
340.651	20.9
341.022	38.86
341.392	45.59
341.762	38.86
342.133	59.05
342.503	-8.28
342.873	-46.43
343.243	18.66
343.613	-23.99
343.984	9.68
344.354	77.01
344.724	41.1
345.094	16.41
345.464	59.05
345.833	45.59
346.203	-19.5
346.573	41.1
346.943	-50.92
347.313	-1.54
347.682	-66.63
348.052	-10.52
348.422	-62.14
348.791	11.92
349.161	-6.03
349.53	20.9
349.9	61.3
350.269	-6.03
350.638	-10.52
351.008	38.86
351.377	85.99
351.746	65.79
352.116	36.61
352.485	-50.92
352.854	36.61
353.223	-37.45
353.592	-21.74
353.961	0.7
354.33	-1.54
354.699	135.36
355.068	-48.67
355.437	25.39
355.806	36.61
356.175	56.81
356.543	11.92
356.912	-15.01
357.281	25.39
357.65	70.28
358.018	-55.41
358.387	-8.28
358.755	43.34
359.124	72.52
359.492	61.3
359.861	72.52
360.229	36.61
360.597	43.34
360.966	11.92
361.334	77.01
361.702	20.9
362.07	29.88
362.438	47.83
362.807	-21.74
363.175	56.81
363.543	38.86
363.911	14.17
364.279	148.83
364.646	207.18
365.014	456.3
365.382	597.7
365.75	1001.68
366.118	1228.36
366.485	1291.2
366.853	976.99
367.221	606.68
367.588	418.15
367.956	328.38
368.323	178
368.691	20.9
369.058	83.74
369.426	50.08
369.793	2.95
370.16	16.41
370.528	2.95
370.895	-3.79
371.262	32.12
371.629	63.54
371.996	23.14
372.363	18.66
372.73	23.14
373.097	27.63
373.464	34.37
373.831	-23.99
374.198	-6.03
374.565	43.34
374.932	-17.25
375.299	36.61
375.665	-77.85
376.032	47.83
376.399	52.32
376.765	63.54
377.132	7.43
377.498	81.5
377.865	29.88
378.231	25.39
378.598	50.08
378.964	81.5
379.331	135.36
379.697	45.59
380.063	59.05
380.429	85.99
380.795	23.14
381.162	25.39
381.528	56.81
381.894	77.01
382.26	41.1
382.626	72.52
382.992	144.34
383.358	99.45
383.723	126.38
384.089	101.7
384.455	20.9
384.821	74.76
385.186	54.57
385.552	83.74
385.918	36.61
386.283	5.19
386.649	45.59
387.014	43.34
387.38	29.88
387.745	-19.5
388.111	166.78
388.476	133.12
388.841	23.14
389.206	41.1
389.572	-1.54
389.937	5.19
390.302	-12.76
390.667	47.83
391.032	27.63
391.397	27.63
391.762	79.25
392.127	52.32
392.492	-41.94
392.857	70.28
393.222	-62.14
393.587	56.81
393.951	106.19
394.316	-50.92
394.681	47.83
395.045	-8.28
395.41	-26.23
395.774	-6.03
396.139	43.34
396.503	59.05
396.868	79.25
397.232	83.74
397.596	43.34
397.961	-12.76
398.325	-15.01
398.689	29.88
399.053	-10.52
399.418	56.81
399.782	27.63
400.146	32.12
400.51	61.3
400.874	52.32
401.238	77.01
401.602	9.68
401.965	47.83
402.329	36.61
402.693	77.01
403.057	169.03
403.42	81.5
403.784	110.67
404.148	386.73
404.511	1104.92
404.875	2083.46
405.238	3122.59
405.602	4570.2
405.965	5717.06
406.329	3623.08
406.692	1980.22
407.055	804.18
407.418	386.73
407.782	314.91
408.145	287.98
408.508	420.39
408.871	561.79
409.234	528.12
409.597	321.64
409.96	247.58
410.323	133.12
410.686	153.32
411.049	267.78
411.412	79.25
411.774	83.74
412.137	162.29
412.5	171.27
412.862	108.43
413.225	85.99
413.588	133.12
413.95	249.82
414.313	144.34
414.675	160.05
415.037	99.45
415.4	189.23
415.762	195.96
416.124	240.85
416.487	240.85
416.849	272.27
417.211	272.27
417.573	229.62
417.935	153.32
418.297	227.38
418.659	279
419.021	285.73
419.383	139.85
419.745	200.45
420.107	164.54
420.469	211.67
420.83	290.22
421.192	249.82
421.554	310.42
421.915	290.22
422.277	296.96
422.638	225.14
423	281.25
423.361	330.62
423.723	261.05
424.084	263.29
424.446	323.89
424.807	323.89
425.168	388.97
425.529	296.96
425.891	384.49
426.252	431.62
426.613	371.02
426.974	353.06
427.335	335.11
427.696	424.88
428.057	418.15
428.418	469.77
428.778	328.38
429.139	418.15
429.5	494.46
429.861	397.95
430.221	382.24
430.582	494.46
430.943	431.62
431.303	465.28
431.664	469.77
432.024	501.19
432.385	474.26
432.745	543.83
433.105	548.32
433.466	626.87
433.826	622.39
434.186	602.19
434.546	660.54
434.907	813.16
435.267	1053.3
435.627	2797.16
435.987	6332.01
436.347	10508.74
436.707	16204.9
437.067	22798.8
437.427	16139.82
437.786	9411.26
438.146	3921.58
438.506	1681.72
438.866	1028.61
439.225	846.82
439.585	705.43
439.944	712.16
440.304	669.52
440.663	687.47
441.023	716.65
441.382	622.39
441.742	725.63
442.101	687.47
442.46	687.47
442.82	642.59
443.179	635.85
443.538	595.45
443.897	658.3
444.256	763.78
444.615	624.63
444.974	734.6
445.333	703.18
445.692	674.01
446.051	721.14
446.41	689.72
446.768	689.72
447.127	620.14
447.486	694.21
447.845	640.34
448.203	617.9
448.562	685.23
448.92	624.63
449.279	730.11
449.637	624.63
449.996	611.16
450.354	691.96
450.712	678.49
451.071	629.12
451.429	741.34
451.787	768.27
452.145	714.4
452.503	718.89
452.861	703.18
453.219	716.65
453.577	725.63
453.935	642.59
454.293	674.01
454.651	698.69
455.009	707.67
455.367	689.72
455.725	691.96
456.082	613.41
456.44	617.9
456.798	667.27
457.155	577.5
457.513	653.81
457.87	608.92
458.228	570.77
458.585	671.76
458.942	611.16
459.3	687.47
459.657	669.52
460.014	647.07
460.371	593.21
460.729	620.14
461.086	615.65
461.443	631.36
461.8	667.27
462.157	689.72
462.514	662.78
462.871	674.01
463.227	642.59
463.584	689.72
463.941	682.98
464.298	718.89
464.655	593.21
465.011	660.54
465.368	653.81
465.724	694.21
466.081	676.25
466.437	651.56
466.794	635.85
467.15	691.96
467.507	622.39
467.863	674.01
468.219	617.9
468.575	721.14
468.932	754.8
469.288	694.21
469.644	595.45
470	638.1
470.356	633.61
470.712	559.54
471.068	626.87
471.424	584.23
471.78	680.74
472.135	631.36
472.491	620.14
472.847	599.94
473.203	620.14
473.558	644.83
473.914	689.72
474.269	674.01
474.625	707.67
474.98	718.89
475.336	613.41
475.691	649.32
476.046	669.52
476.402	588.72
476.757	523.63
477.112	667.27
477.467	653.81
477.823	624.63
478.178	721.14
478.533	620.14
478.888	685.23
479.243	617.9
479.598	671.76
479.952	779.49
480.307	705.43
480.662	797.45
481.017	725.63
481.372	846.82
481.726	889.46
482.081	983.73
482.435	1152.05
482.79	1632.34
483.144	1798.43
483.499	2229.34
483.853	2296.67
484.208	2447.04
484.562	2698.41
484.916	3070.97
485.27	3313.36
485.625	3259.5
485.979	3802.63
486.333	4868.7
486.687	6843.72
487.041	8776.11
487.395	9009.52
487.749	7716.77
488.103	6437.5
488.457	5721.55
488.81	5550.98
489.164	5530.78
489.518	5176.17
489.872	4745.26
490.225	4945
490.579	5279.41
490.932	6154.71
491.286	7018.78
491.639	7000.83
491.993	6412.81
492.346	5465.69
492.7	5088.64
493.053	5037.02
493.406	5371.43
493.759	5221.06
494.112	5102.11
494.466	4812.59
494.819	4686.9
495.172	4208.86
495.525	3605.13
495.878	3297.65
496.231	3037.31
496.583	2936.31
496.936	3171.97
497.289	3219.1
497.642	3562.48
497.994	3418.85
498.347	3681.43
498.7	3423.33
499.052	3255.01
499.405	2956.51
499.757	2675.97
500.11	2604.15
500.462	2372.98
500.814	2305.65
501.167	2056.53
501.519	1823.11
501.871	1966.75
502.223	1823.11
502.575	1722.12
502.928	1713.14
503.28	1481.97
503.632	1441.57
503.984	1237.34
504.335	952.31
504.687	730.11
505.039	819.89
505.391	700.94
505.743	723.38
506.094	669.52
506.446	647.07
506.798	629.12
507.149	552.81
507.501	528.12
507.852	388.97
508.204	364.29
508.555	384.49
508.906	364.29
509.258	454.06
509.609	404.68
509.96	420.39
510.311	465.28
510.663	489.97
511.014	496.7
511.365	449.57
511.716	409.17
512.067	341.84
512.418	305.93
512.768	290.22
513.119	362.04
513.47	292.47
513.821	391.22
514.171	411.42
514.522	373.26
514.873	301.44
515.223	292.47
515.574	303.69
515.924	326.13
516.275	321.64
516.625	261.05
516.975	308.18
517.326	240.85
517.676	229.62
518.026	267.78
518.376	265.53
518.727	258.8
519.077	319.4
519.427	195.96
519.777	337.35
520.127	314.91
520.477	274.51
520.826	305.93
521.176	225.14
521.526	243.09
521.876	245.34
522.225	254.31
522.575	184.74
522.925	279
523.274	254.31
523.624	142.1
523.973	151.07
524.323	231.87
524.672	229.62
525.021	229.62
525.371	218.4
525.72	209.43
526.069	207.18
526.418	135.36
526.767	204.94
527.117	321.64
527.466	256.56
527.815	305.93
528.164	279
528.512	236.36
528.861	380
529.21	353.06
529.559	240.85
529.908	296.96
530.256	256.56
530.605	261.05
530.954	279
531.302	323.89
531.651	308.18
531.999	279
532.347	341.84
532.696	339.6
533.044	530.37
533.392	570.77
533.741	952.31
534.089	1239.58
534.437	1452.8
534.785	1728.85
535.133	1423.62
535.481	1158.79
535.829	1203.67
536.177	1120.63
536.525	1468.51
536.873	2056.53
537.221	3032.82
537.568	3602.88
537.916	3961.98
538.264	4709.35
538.611	5436.52
538.959	6554.2
539.307	7986.1
539.654	10192.29
540.001	11785.78
540.349	10766.85
540.696	8803.04
541.044	8526.98
541.391	10515.48
541.738	16173.48
542.085	24901.76
542.432	35955.18
542.779	38841.41
543.126	31957.99
543.473	26807.21
543.82	24241.92
544.167	23279.09
544.514	23420.49
544.861	22493.57
545.208	21382.62
545.555	20810.31
545.901	22825.73
546.248	28445.58
546.595	34314.56
546.941	42679.25
547.288	53748.38
547.634	44138.07
547.98	34938.49
548.327	30856.02
548.673	28903.43
549.019	26780.28
549.366	24416.98
549.712	22482.35
550.058	20650.96
550.404	18397.63
550.75	15984.96
551.096	13969.53
551.442	12162.83
551.788	10335.93
552.134	8921.99
552.48	7972.63
552.826	7337.48
553.171	6264.68
553.517	5467.94
553.863	4817.07
554.208	4507.35
554.554	4469.2
554.9	4648.75
555.245	5057.22
555.59	5099.86
555.936	4339.03
556.281	3501.89
556.626	2794.92
556.972	2157.52
557.317	1630.1
557.662	1484.22
558.007	1246.32
558.352	1109.41
558.697	1091.46
559.042	972.5
559.387	882.73
559.732	882.73
560.077	730.11
560.422	743.58
560.767	680.74
561.111	682.98
561.456	624.63
561.801	586.48
562.145	552.81
562.49	584.23
562.834	631.36
563.179	638.1
563.523	597.7
563.867	550.57
564.212	597.7
564.556	631.36
564.9	539.35
565.244	487.73
565.589	530.37
565.933	595.45
566.277	440.59
566.621	447.33
566.965	415.91
567.309	494.46
567.652	393.46
567.996	516.9
568.34	413.66
568.684	440.59
569.027	418.15
569.371	476.5
569.715	469.77
570.058	406.93
570.402	404.68
570.745	406.93
571.089	364.29
571.432	373.26
571.775	321.64
572.119	231.87
572.462	323.89
572.805	308.18
573.148	357.55
573.491	296.96
573.834	393.46
574.177	395.71
574.52	406.93
574.863	359.8
575.206	456.3
575.549	404.68
575.892	480.99
576.234	489.97
576.577	541.59
576.92	732.36
577.262	1614.39
577.605	2451.53
577.947	4617.33
578.29	6064.93
578.632	3506.37
578.975	2662.5
579.317	2619.86
579.659	3225.83
580.001	4915.83
580.344	6971.65
580.686	5313.08
581.028	5054.98
581.37	5822.54
581.712	6107.58
582.054	5357.96
582.396	4938.27
582.738	5212.08
583.079	5227.79
583.421	5256.97
583.763	5135.77
584.105	5259.21
584.446	5032.53
584.788	5003.36
585.129	5533.02
585.471	5730.53
585.812	5986.38
586.154	5914.56
586.495	5916.81
586.836	6156.95
587.178	6872.9
587.519	7748.2
587.86	8998.3
588.201	10805
588.542	12156.1
588.883	10930.68
589.224	8798.55
589.565	7391.34
589.906	6302.83
590.247	5741.75
590.588	5521.8
590.929	5436.52
591.269	5458.96
591.61	5512.82
591.951	5651.97
592.291	5708.08
592.632	5508.33
592.972	5634.02
593.313	5880.9
593.653	6834.75
593.993	7469.9
594.334	8044.45
594.674	7315.04
595.014	6076.15
595.354	4803.61
595.694	3852
596.034	3293.16
596.375	3102.39
596.714	3064.24
597.054	2839.8
597.394	2750.03
597.734	2590.68
598.074	2368.49
598.414	2375.22
598.753	2377.47
599.093	2498.66
599.433	2729.83
599.772	3281.94
600.112	3647.77
600.451	3867.72
600.791	4062.97
601.13	3935.05
601.469	3513.11
601.809	2940.8
602.148	2458.26
602.487	2141.81
602.826	1917.38
603.165	1717.63
603.504	1484.22
603.843	1389.95
604.182	1385.46
604.521	1461.77
604.86	1356.29
605.199	1585.21
605.538	1450.55
605.877	1504.42
606.215	1674.99
606.554	1632.34
606.892	1838.82
607.231	1942.06
607.57	2128.34
607.908	2287.69
608.246	2527.84
608.585	2772.47
608.923	3187.68
609.261	3786.92
609.6	4368.21
609.938	5355.72
610.276	6937.99
610.614	8733.46
610.952	12445.62
611.29	19403.1
611.628	31704.38
611.966	47233.03
612.304	56820.89
612.641	58600.66
612.979	52478.08
613.317	42331.37
613.655	32849
613.992	26163.08
614.33	22105.3
614.667	19827.28
615.005	17755.75
615.342	17286.68
615.68	15955.78
616.017	14988.47
616.354	13002.22
616.691	11090.03
617.029	9126.23
617.366	7573.14
617.703	6471.16
618.04	5840.5
618.377	5281.66
618.714	4873.18
619.051	4635.28
619.388	4426.56
619.725	4159.48
620.061	4282.92
620.398	4152.75
620.735	3798.14
621.071	3717.34
621.408	3632.06
621.745	3845.27
622.081	4011.35
622.417	3908.11
622.754	3764.48
623.09	3923.82
623.427	3818.34
623.763	3961.98
624.099	3928.31
624.435	3966.47
624.771	3903.62
625.107	3867.72
625.443	4045.02
625.779	4244.77
626.115	4235.79
626.451	4278.43
626.787	4316.59
627.123	4437.78
627.459	4404.11
627.794	4444.51
628.13	4132.55
628.465	3919.34
628.801	3629.81
629.137	3602.88
629.472	3531.06
629.807	3524.33
630.143	3708.37
630.478	4089.91
630.813	4684.66
631.149	5414.07
