Data from JAZA04901_14-32-26-191.txt Node
Date: Fri Oct 12 14:32:26 EDT 2018
User: physics
Spectrometer: JAZA0490
Scans to average: 1
Trigger mode: 0
Integration Time (sec): 1.000000E-1
Electric dark correction enabled: true
Boxcar width: 0
XAxis mode: Wavelengths
Number of Pixels in Spectrum: 2048
>>>>>Begin Spectral Data<<<<<
177.185	-19.08
177.571	-19.08
177.957	-19.08
178.343	-30.3
178.729	-5.61
179.115	10.1
179.5	52.74
179.886	-41.52
180.272	25.81
180.658	-23.57
181.043	-1.12
181.429	23.57
181.815	23.57
182.2	1.12
182.586	12.34
182.972	23.57
183.357	-10.1
183.743	-41.52
184.128	-39.28
184.513	37.03
184.899	-70.7
185.284	-77.43
185.67	-37.03
186.055	-19.08
186.44	-41.52
186.825	-46.01
187.21	52.74
187.596	-39.28
187.981	-12.34
188.366	14.59
188.751	12.34
189.136	-37.03
189.521	-10.1
189.906	-61.72
190.291	-14.59
190.676	-19.08
191.06	28.05
191.445	7.86
191.83	-16.83
192.215	3.37
192.599	59.48
192.984	61.72
193.369	-43.76
193.753	-12.34
194.138	-12.34
194.522	-25.81
194.907	88.65
195.291	-37.03
195.676	-3.37
196.06	-39.28
196.445	-14.59
196.829	-12.34
197.213	-90.9
197.597	23.57
197.982	25.81
198.366	23.57
198.75	-59.48
199.134	-25.81
199.518	-46.01
199.902	3.37
200.286	-12.34
200.67	14.59
201.054	-34.79
201.438	50.5
201.822	-19.08
202.206	-72.94
202.59	-5.61
202.973	-50.5
203.357	-1.12
203.741	16.83
204.124	37.03
204.508	37.03
204.892	16.83
205.275	-41.52
205.659	5.61
206.042	-23.57
206.426	1.12
206.809	-23.57
207.193	-77.43
207.576	-41.52
207.959	61.72
208.342	14.59
208.726	-30.3
209.109	-5.61
209.492	-16.83
209.875	-23.57
210.258	10.1
210.641	-16.83
211.025	-16.83
211.408	-46.01
211.79	5.61
212.173	23.57
212.556	14.59
212.939	37.03
213.322	-25.81
213.705	-52.74
214.088	10.1
214.47	-23.57
214.853	-41.52
215.236	-52.74
215.618	-1.12
216.001	-1.12
216.383	-12.34
216.766	19.08
217.148	-50.5
217.531	-50.5
217.913	-21.32
218.296	-37.03
218.678	-16.83
219.06	3.37
219.443	-14.59
219.825	-57.23
220.207	-63.96
220.589	32.54
220.971	-10.1
221.353	-102.12
221.735	-21.32
222.118	-30.3
222.5	-57.23
222.881	5.61
223.263	-28.05
223.645	19.08
224.027	-39.28
224.409	-90.9
224.791	16.83
225.172	-61.72
225.554	-28.05
225.936	-34.79
226.317	1.12
226.699	-23.57
227.081	-25.81
227.462	7.86
227.844	12.34
228.225	48.25
228.607	43.76
228.988	129.05
229.369	30.3
229.751	-12.34
230.132	-5.61
230.513	-14.59
230.894	-12.34
231.276	10.1
231.657	16.83
232.038	-19.08
232.419	12.34
232.8	37.03
233.181	-46.01
233.562	-34.79
233.943	-41.52
234.324	-46.01
234.705	3.37
235.085	37.03
235.466	28.05
235.847	5.61
236.228	-113.34
236.608	-32.54
236.989	-16.83
237.37	-23.57
237.75	-19.08
238.131	-39.28
238.511	21.32
238.892	-10.1
239.272	1.12
239.653	-68.45
240.033	-77.43
240.413	25.81
240.794	-23.57
241.174	-1.12
241.554	-66.21
241.934	-28.05
242.314	-14.59
242.694	54.99
243.075	14.59
243.455	10.1
243.835	-1.12
244.215	-52.74
244.595	-16.83
244.974	-46.01
245.354	-41.52
245.734	-14.59
246.114	-21.32
246.494	7.86
246.873	-90.9
247.253	25.81
247.633	1.12
248.012	34.79
248.392	-43.76
248.771	-48.25
249.151	-97.63
249.53	1.12
249.91	-30.3
250.289	-30.3
250.669	-19.08
251.048	12.34
251.427	1.12
251.806	-5.61
252.186	-30.3
252.565	7.86
252.944	-43.76
253.323	-52.74
253.702	10.1
254.081	16.83
254.46	-14.59
254.839	-25.81
255.218	-16.83
255.597	-57.23
255.976	-37.03
256.355	-93.14
256.733	-95.38
257.112	-68.45
257.491	-39.28
257.87	21.32
258.248	25.81
258.627	16.83
259.005	-7.86
259.384	48.25
259.762	-28.05
260.141	16.83
260.519	-61.72
260.898	-52.74
261.276	-46.01
261.654	-59.48
262.033	-1.12
262.411	-16.83
262.789	28.05
263.167	16.83
263.545	-14.59
263.924	-14.59
264.302	-97.63
264.68	-5.61
265.058	46.01
265.436	90.9
265.813	-3.37
266.191	-21.32
266.569	7.86
266.947	14.59
267.325	-28.05
267.702	-46.01
268.08	-48.25
268.458	23.57
268.835	-12.34
269.213	34.79
269.591	28.05
269.968	-7.86
270.346	-28.05
270.723	23.57
271.1	-57.23
271.478	-14.59
271.855	-46.01
272.232	-54.99
272.61	-16.83
272.987	-34.79
273.364	30.3
273.741	-1.12
274.118	19.08
274.495	1.12
274.872	14.59
275.249	48.25
275.626	-41.52
276.003	34.79
276.38	30.3
276.757	-63.96
277.134	-5.61
277.511	52.74
277.887	7.86
278.264	-14.59
278.641	52.74
279.018	-23.57
279.394	-34.79
279.771	-16.83
280.147	39.28
280.524	7.86
280.9	-30.3
281.277	-3.37
281.653	-12.34
282.029	-1.12
282.406	66.21
282.782	-50.5
283.158	-12.34
283.534	-12.34
283.91	-25.81
284.287	-10.1
284.663	12.34
285.039	-72.94
285.415	-10.1
285.791	-46.01
286.167	-23.57
286.542	-41.52
286.918	-111.1
287.294	16.83
287.67	1.12
288.046	-23.57
288.421	-28.05
288.797	1.12
289.173	23.57
289.548	-10.1
289.924	7.86
290.299	-57.23
290.675	7.86
291.05	-19.08
291.426	-72.94
291.801	16.83
292.177	41.52
292.552	-5.61
292.927	-37.03
293.302	-90.9
293.678	-25.81
294.053	12.34
294.428	102.12
294.803	5.61
295.178	-1.12
295.553	-14.59
295.928	-30.3
296.303	-57.23
296.678	-14.59
297.053	-12.34
297.427	-19.08
297.802	-95.38
298.177	3.37
298.552	7.86
298.926	12.34
299.301	-10.1
299.676	61.72
300.05	25.81
300.425	19.08
300.799	-5.61
301.174	-3.37
301.548	39.28
301.922	14.59
302.297	-5.61
302.671	-21.32
303.045	19.08
303.42	-16.83
303.794	-32.54
304.168	28.05
304.542	-48.25
304.916	-23.57
305.29	5.61
305.664	-30.3
306.038	-84.16
306.412	10.1
306.786	-59.48
307.16	34.79
307.534	-14.59
307.907	-72.94
308.281	-41.52
308.655	-25.81
309.028	-5.61
309.402	-50.5
309.776	1.12
310.149	23.57
310.523	-10.1
310.896	-37.03
311.27	3.37
311.643	-7.86
312.016	-19.08
312.39	-5.61
312.763	-30.3
313.136	-19.08
313.509	-32.54
313.883	-39.28
314.256	-41.52
314.629	-5.61
315.002	-52.74
315.375	14.59
315.748	23.57
316.121	-21.32
316.494	-57.23
316.867	-16.83
317.24	-75.19
317.612	-25.81
317.985	-23.57
318.358	-23.57
318.73	-5.61
319.103	-28.05
319.476	46.01
319.848	-3.37
320.221	-3.37
320.593	1.12
320.966	-77.43
321.338	-21.32
321.711	5.61
322.083	-5.61
322.455	-16.83
322.828	-5.61
323.2	66.21
323.572	28.05
323.944	7.86
324.316	61.72
324.688	-46.01
325.06	-61.72
325.432	-1.12
325.804	-48.25
326.176	-41.52
326.548	54.99
326.92	12.34
327.292	14.59
327.664	-46.01
328.035	-16.83
328.407	-19.08
328.779	-14.59
329.15	-30.3
329.522	61.72
329.893	-37.03
330.265	37.03
330.636	-14.59
331.008	-21.32
331.379	1.12
331.75	-34.79
332.122	3.37
332.493	-30.3
332.864	-19.08
333.236	39.28
333.607	7.86
333.978	30.3
334.349	25.81
334.72	-19.08
335.091	5.61
335.462	-12.34
335.833	-19.08
336.204	34.79
336.575	-68.45
336.945	-1.12
337.316	-16.83
337.687	-54.99
338.058	-52.74
338.428	-32.54
338.799	-57.23
339.169	-28.05
339.54	-77.43
339.911	-138.03
340.281	7.86
340.651	-63.96
341.022	-63.96
341.392	19.08
341.762	19.08
342.133	-39.28
342.503	16.83
342.873	41.52
343.243	14.59
343.613	16.83
343.984	-12.34
344.354	1.12
344.724	-52.74
345.094	-19.08
345.464	12.34
345.833	-41.52
346.203	1.12
346.573	-34.79
346.943	57.23
347.313	32.54
347.682	32.54
348.052	50.5
348.422	30.3
348.791	12.34
349.161	-43.76
349.53	-66.21
349.9	-46.01
350.269	-23.57
350.638	1.12
351.008	-28.05
351.377	14.59
351.746	-28.05
352.116	21.32
352.485	-7.86
352.854	-32.54
353.223	-1.12
353.592	104.36
353.961	34.79
354.33	3.37
354.699	7.86
355.068	3.37
355.437	-12.34
355.806	88.65
356.175	54.99
356.543	46.01
356.912	75.19
357.281	10.1
357.65	-57.23
358.018	52.74
358.387	66.21
358.755	-39.28
359.124	90.9
359.492	1.12
359.861	23.57
360.229	43.76
360.597	28.05
360.966	37.03
361.334	-10.1
361.702	19.08
362.07	63.96
362.438	37.03
362.807	75.19
363.175	57.23
363.543	59.48
363.911	99.87
364.279	88.65
364.646	41.52
365.014	102.12
365.382	23.57
365.75	12.34
366.118	61.72
366.485	155.98
366.853	108.85
367.221	95.38
367.588	126.81
367.956	34.79
368.323	164.96
368.691	135.78
369.058	93.14
369.426	126.81
369.793	97.63
370.16	214.34
370.528	225.56
370.895	230.05
371.262	236.78
371.629	236.78
371.996	142.52
372.363	169.45
372.73	182.91
373.097	236.78
373.464	180.67
373.831	290.64
374.198	178.43
374.565	144.76
374.932	158.23
375.299	173.94
375.665	151.49
376.032	205.36
376.399	313.09
376.765	270.44
377.132	209.85
377.498	281.67
377.865	232.29
378.231	324.31
378.598	434.28
378.964	445.5
379.331	384.91
379.697	369.2
380.063	402.86
380.429	418.57
380.795	317.58
381.162	416.33
381.528	418.57
381.894	353.49
382.26	423.06
382.626	373.68
382.992	351.24
383.358	331.04
383.723	337.77
384.089	324.31
384.455	292.89
384.821	340.02
385.186	423.06
385.552	326.55
385.918	470.19
386.283	476.92
386.649	497.12
387.014	553.23
387.38	533.03
387.745	539.77
388.111	589.14
388.476	609.34
388.841	721.56
389.206	649.74
389.572	654.23
389.937	654.23
390.302	766.45
390.667	750.73
391.032	860.71
391.397	856.22
391.762	883.15
392.127	977.41
392.492	954.97
392.857	1004.35
393.222	950.48
393.587	793.38
393.951	703.6
394.316	600.36
394.681	544.25
395.045	629.54
395.41	858.46
395.774	972.93
396.139	1026.79
396.503	1060.46
396.868	1013.32
397.232	1046.99
397.596	761.96
397.961	712.58
398.325	768.69
398.689	1060.46
399.053	1165.94
399.418	1280.4
399.782	1518.3
400.146	1511.57
400.51	1495.86
400.874	1560.94
401.238	1527.28
401.602	1599.1
401.965	1643.99
402.329	1760.69
402.693	1828.02
403.057	1742.74
403.42	1823.53
403.784	1830.27
404.148	1747.23
404.511	1684.38
404.875	1852.71
405.238	1778.65
405.602	1823.53
405.965	1720.29
406.329	1740.49
406.692	1736
407.055	1778.65
407.418	1801.09
407.782	1684.38
408.145	1747.23
408.508	1850.47
408.871	1821.29
409.234	2036.75
409.597	2166.92
409.96	2070.41
410.323	2000.84
410.686	1938
411.049	1962.68
411.412	1924.53
411.774	1881.89
412.137	2081.63
412.5	2108.57
412.862	2202.83
413.225	2328.51
413.588	2220.78
413.95	2200.58
414.313	2270.16
414.675	2274.65
415.037	2189.36
415.4	2256.69
415.762	2193.85
416.124	2254.45
416.487	2317.29
416.849	2162.43
417.211	2315.05
417.573	2350.96
417.935	2187.12
418.297	2189.36
418.659	2182.63
419.021	2270.16
419.383	2153.45
419.745	2258.94
420.107	2157.94
420.469	2234.25
420.83	2198.34
421.192	2232.01
421.554	2232.01
421.915	2400.33
422.277	2409.31
422.638	2413.8
423	2359.93
423.361	2413.8
423.723	2108.57
424.084	2171.41
424.446	2328.51
424.807	2290.36
425.168	2256.69
425.529	2407.06
425.891	2442.97
426.252	2326.27
426.613	2393.6
426.974	2442.97
427.335	2326.27
427.696	2366.67
428.057	2550.7
428.418	2324.02
428.778	2335.25
429.139	2429.51
429.5	2442.97
429.861	2341.98
430.221	2214.05
430.582	2288.11
430.943	2202.83
431.303	1940.24
431.664	1899.84
432.024	2047.97
432.385	2119.79
432.745	2624.77
433.105	2799.83
433.466	2552.95
433.826	2611.3
434.186	2721.27
434.546	2851.45
434.907	2656.19
435.267	2555.19
435.627	2606.81
435.987	2795.34
436.347	2876.13
436.707	2873.89
437.067	3125.26
437.427	3039.97
437.786	3051.19
438.146	3006.31
438.506	2938.98
438.866	2878.38
439.225	2752.69
439.585	2723.52
439.944	2842.47
440.304	2802.07
440.663	3022.02
441.023	2972.64
441.382	2871.64
441.742	2950.2
442.101	2972.64
442.46	3082.61
442.82	3192.59
443.179	3320.51
443.538	3228.5
443.897	3331.74
444.256	3210.54
444.615	3345.2
444.974	3273.38
445.333	3399.07
445.692	3417.02
446.051	3396.82
446.41	3381.11
446.768	3140.97
447.127	3149.94
447.486	3262.16
447.845	3345.2
448.203	3351.94
448.562	3493.33
448.92	3553.93
449.279	3513.53
449.637	3569.64
449.996	3636.97
450.354	3506.8
450.712	3567.39
451.071	3697.57
451.429	3726.74
451.787	3850.18
452.145	3749.19
452.503	3740.21
452.861	3760.41
453.219	3764.9
453.577	3690.83
453.935	3627.99
454.293	3376.62
454.651	3500.06
455.009	3699.81
455.367	3877.11
455.725	3740.21
456.082	3758.16
456.44	3834.47
456.798	3724.5
457.155	3764.9
457.513	4137.46
457.87	3964.64
458.228	4090.33
458.585	4070.13
458.942	3960.15
459.3	3877.11
459.657	3933.22
460.014	3922
460.371	3859.16
460.729	3987.09
461.086	3904.05
461.443	4072.37
461.8	4007.29
462.157	4204.79
462.514	4144.19
462.871	4254.16
463.227	4292.32
463.584	4386.58
463.941	4364.14
464.298	4308.03
464.655	4189.08
465.011	4310.27
465.368	4137.46
465.724	4314.76
466.081	4180.1
466.437	4278.85
466.794	4209.28
467.15	4471.87
467.507	4245.19
467.863	4088.08
468.219	4211.52
468.575	4269.87
468.932	4290.07
469.288	4299.05
469.644	4404.54
470	4492.07
470.356	4662.64
470.712	4545.93
471.068	4456.16
471.424	4429.22
471.78	4449.42
472.135	4548.17
472.491	4795.05
472.847	4761.39
473.203	5019.49
473.558	5113.75
473.914	4947.67
474.269	4801.79
474.625	5111.51
474.98	5243.92
475.336	5295.54
475.691	5297.79
476.046	5291.05
476.402	5309.01
476.757	5383.07
477.112	5344.92
477.467	5569.35
477.823	5412.25
478.178	5632.19
478.533	5629.95
478.888	5883.56
479.243	6130.44
479.598	5858.87
479.952	6000.27
480.307	6004.76
480.662	6341.41
481.017	6352.63
481.372	6318.97
481.726	6442.4
482.081	6370.59
482.435	6480.56
482.79	6655.62
483.144	6920.45
483.499	6904.74
483.853	6745.39
484.208	6660.11
484.562	6731.93
484.916	6830.68
485.27	6797.01
485.625	6655.62
485.979	6963.09
486.333	6817.21
486.687	6511.98
487.041	6020.47
487.395	5519.98
487.749	5955.38
488.103	6309.99
488.457	6720.7
488.81	6812.72
489.164	7048.38
489.518	7117.95
489.872	6857.61
490.225	6915.96
490.579	7106.73
490.932	7501.74
491.286	7443.38
491.639	7308.72
491.993	7524.18
492.346	7364.83
492.7	7254.86
493.053	7187.53
493.406	6987.78
493.759	7272.81
494.112	7293.01
494.466	7295.26
494.819	7420.94
495.172	7463.58
495.525	7537.65
495.878	7804.72
496.231	7901.23
496.583	7750.86
496.936	7638.64
497.289	7645.38
497.642	7943.87
497.994	7681.29
498.347	7658.84
498.7	7802.48
499.052	7620.69
499.405	7293.01
499.757	7380.54
500.11	7562.34
500.462	7674.55
500.814	7797.99
501.167	7533.16
501.519	7398.5
501.871	7198.75
502.223	7394.01
502.575	7135.91
502.928	7192.02
503.28	7344.63
503.632	7656.6
503.984	7564.58
504.335	7728.42
504.687	7766.57
505.039	7385.03
505.391	7308.72
505.743	7643.13
506.094	7854.1
506.446	8038.14
506.798	8166.06
507.149	8354.59
507.501	8114.44
507.852	8307.46
508.204	7943.87
508.555	8127.91
508.906	7818.19
509.258	7815.95
509.609	7898.99
509.96	8302.97
510.311	8480.27
510.663	8536.38
511.014	8455.59
511.365	8132.4
511.716	8583.51
512.067	8612.69
512.418	8637.38
512.768	8832.64
513.119	8868.55
513.47	8715.93
513.821	8547.6
514.171	8471.3
514.522	8585.76
514.873	8588
515.223	8487.01
515.574	8588
515.924	8785.51
516.275	8902.21
516.625	8933.63
516.975	9122.16
517.326	8798.97
517.676	8426.41
518.026	7829.41
518.376	7831.66
518.727	8278.28
519.077	8875.28
519.427	8531.89
519.777	8347.86
520.127	9229.89
520.477	9218.66
520.826	9584.49
521.176	9878.5
521.526	9808.93
521.876	9672.02
522.225	9916.66
522.575	10322.88
522.925	10170.27
523.274	10318.4
523.624	10212.91
523.973	9939.1
524.323	10435.1
524.672	10219.64
525.021	11054.54
525.371	10928.86
525.72	11038.83
526.069	10866.02
526.418	10762.78
526.767	11063.52
527.117	10874.99
527.466	10307.17
527.815	9752.82
528.164	9757.31
528.512	10134.36
528.861	10524.88
529.21	11007.41
529.559	10892.95
529.908	11467.5
530.256	11626.85
530.605	11631.34
530.954	11485.46
531.302	11213.89
531.651	11584.21
531.999	11965.75
532.347	12131.83
532.696	11669.49
533.044	11640.32
533.392	11431.59
533.741	11007.41
534.089	10760.53
534.437	11016.39
534.785	11575.23
535.133	11330.6
535.481	11252.05
535.829	11460.77
536.177	11676.23
536.525	11754.78
536.873	11972.48
537.221	12024.1
537.568	11371
537.916	11287.95
538.264	11009.66
538.611	11492.19
538.959	11721.11
539.307	11564.01
539.654	11537.08
540.001	11721.11
540.349	11204.91
540.696	11216.14
541.044	11225.11
541.391	10859.28
541.738	10704.42
542.085	10818.89
542.432	10975.99
542.779	11402.42
543.126	11276.73
543.473	11256.53
543.82	11326.11
544.167	11063.52
544.514	11247.56
544.861	11207.16
545.208	11440.57
545.555	11393.44
545.901	11225.11
546.248	11278.98
546.595	11321.62
546.941	11292.44
547.288	11485.46
547.634	11281.22
547.98	11766
548.327	11465.26
548.673	11276.73
549.019	11164.52
549.366	11106.16
549.712	11195.94
550.058	11119.63
550.404	11375.48
550.75	11263.27
551.096	11348.55
551.442	11229.6
551.788	11355.29
552.134	11330.6
552.48	11198.18
552.826	11305.91
553.171	11575.23
553.517	11514.63
553.863	11186.96
554.208	10933.35
554.554	11458.53
554.9	11106.16
555.245	11400.17
555.59	11323.86
555.936	11456.28
556.281	11400.17
556.626	11029.85
556.972	11393.44
557.317	11144.32
557.662	10897.44
558.007	10594.45
558.352	10697.69
558.697	10910.9
559.042	10841.33
559.387	10769.51
559.732	10574.25
560.077	10076.01
560.422	10269.02
560.767	10625.87
561.111	10253.31
561.456	10374.5
561.801	10803.18
562.145	10610.16
562.49	10776.24
562.834	10275.75
563.179	10677.49
563.523	10502.43
563.867	10363.28
564.212	10430.61
564.556	10428.37
564.9	9995.21
565.244	10307.17
565.589	10251.07
565.933	10356.55
566.277	10013.16
566.621	9941.35
566.965	9882.99
567.309	9714.67
567.652	9896.46
567.996	9826.88
568.34	10080.49
568.684	9835.86
569.027	9597.96
569.371	9714.67
569.715	9418.41
570.058	9301.71
570.402	9366.79
570.745	9279.26
571.089	9382.5
571.432	9068.29
571.775	9034.63
572.119	8653.09
572.462	8711.44
572.805	8987.5
573.148	9122.16
573.491	9209.69
573.834	9092.98
574.177	8915.68
574.52	8870.79
574.863	8798.97
575.206	8668.8
575.549	8787.75
575.892	8585.76
576.234	8549.85
576.577	8361.32
576.92	8381.52
577.262	8260.33
577.605	8401.72
577.947	8325.41
578.29	8139.13
578.632	8377.03
578.975	8026.92
579.317	7966.32
579.659	7961.83
580.001	8011.2
580.344	7851.86
580.686	8040.38
581.028	7973.05
581.37	7955.1
581.712	7966.32
582.054	8015.69
582.396	7878.79
582.738	7883.28
583.079	7851.86
583.421	8020.18
583.763	7730.66
584.105	8044.87
584.446	7854.1
584.788	7652.11
585.129	7939.39
585.471	7809.21
585.812	7818.19
586.154	7613.96
586.495	7474.81
586.836	7308.72
587.178	7310.97
587.519	7450.12
587.86	7349.12
588.201	7337.9
588.542	7331.17
588.883	7194.26
589.224	7117.95
589.565	6794.77
589.906	6532.18
590.247	6031.69
590.588	6179.82
590.929	6350.39
591.269	6595.02
591.61	6669.08
591.951	6808.23
592.291	6803.74
592.632	6731.93
592.972	6651.13
593.313	6630.93
593.653	6678.06
593.993	6543.4
594.334	6725.19
594.674	6691.53
595.014	6707.24
595.354	6642.15
595.694	6437.92
596.034	6336.92
596.375	6480.56
596.714	6393.03
597.054	6577.07
597.394	6511.98
597.734	6507.49
598.074	6503
598.414	6363.85
598.753	6417.72
599.093	6608.49
599.433	6330.19
599.772	6285.3
600.112	6298.77
600.451	6357.12
600.791	6271.83
601.13	6307.74
601.469	6262.86
601.809	6269.59
602.148	6112.49
602.487	6114.73
602.826	5980.07
603.165	6007
603.504	5932.94
603.843	6132.68
604.182	6157.37
604.521	6318.97
604.86	6258.37
605.199	6213.48
605.538	6092.29
605.877	6150.64
606.215	6085.55
606.554	5854.39
606.892	6056.38
607.231	5858.87
607.57	5926.2
607.908	5816.23
608.246	5865.61
608.585	5751.15
608.923	5935.18
609.261	5764.61
609.6	5719.72
609.938	5704.01
610.276	5641.17
610.614	5486.31
610.952	5546.91
611.29	5466.11
611.628	5356.14
611.966	5463.87
612.304	5528.95
612.641	5344.92
612.979	5457.14
613.317	5194.55
613.655	5427.96
613.992	5234.94
614.33	5255.14
614.667	5156.39
615.005	5187.81
615.342	5255.14
615.68	5398.78
616.017	5221.48
616.354	5111.51
616.691	5111.51
617.029	4949.91
617.366	4738.94
617.703	4905.03
618.04	4909.51
